Date,2016/09/28,
Time,16:00:00,
Memo,EKO WISER,
Sensor,MS-711,
Exposure Time(msec),200,
Sensor Temp.(deg),25.3,
Power(V),5.9,
Wavelength(nm),Irradiance(W/m2/um),
287.77,0.00,
288.21,0.00,
288.65,0.00,
289.08,0.00,
289.52,0.00,
289.95,0.00,
290.39,0.00,
290.82,0.00,
291.26,0.00,
291.69,0.00,
292.13,0.00,
292.56,0.00,
293.00,0.00,
293.43,0.00,
293.87,0.00,
294.30,0.00,
294.74,0.81,
295.17,0.94,
295.61,1.23,
296.04,1.40,
296.47,1.94,
296.91,1.81,
297.34,2.02,
297.78,2.29,
298.21,2.30,
298.65,2.63,
299.08,3.17,
299.51,3.36,
299.95,3.59,
300.38,4.09,
300.82,4.90,
301.25,5.65,
301.68,6.44,
302.12,7.69,
302.55,8.45,
302.99,9.01,
303.42,10.04,
303.85,11.20,
304.29,12.57,
304.72,14.13,
305.15,15.65,
305.59,17.47,
306.02,18.95,
306.46,20.90,
306.89,23.24,
307.32,25.38,
307.76,27.88,
308.19,30.26,
308.62,32.76,
309.06,35.30,
309.49,38.19,
309.92,41.23,
310.35,44.50,
310.79,47.21,
311.22,50.45,
311.65,53.63,
312.09,56.13,
312.52,59.39,
312.95,62.62,
313.38,65.96,
313.82,69.22,
314.25,72.41,
314.68,75.89,
315.12,78.64,
315.55,81.48,
315.98,85.57,
316.41,88.65,
316.85,91.66,
317.28,94.71,
317.71,97.83,
318.14,100.55,
318.57,103.61,
319.01,106.97,
319.44,110.08,
319.87,112.64,
320.30,116.20,
320.73,119.50,
321.17,122.30,
321.60,127.27,
322.03,132.28,
322.46,136.85,
322.89,141.41,
323.33,146.71,
323.76,151.73,
324.19,156.01,
324.62,160.66,
325.05,166.61,
325.48,171.19,
325.92,175.86,
326.35,180.79,
326.78,184.29,
327.21,188.01,
327.64,191.26,
328.07,193.99,
328.50,196.42,
328.93,197.79,
329.37,199.47,
329.80,200.36,
330.23,200.52,
330.66,202.51,
331.09,203.48,
331.52,203.56,
331.95,203.27,
332.38,203.01,
332.81,202.93,
333.24,202.21,
333.68,201.76,
334.11,202.44,
334.54,202.31,
334.97,202.60,
335.40,203.33,
335.83,204.20,
336.26,205.65,
336.69,207.12,
337.12,208.63,
337.55,210.40,
337.98,212.03,
338.41,214.18,
338.84,215.67,
339.27,216.60,
339.70,218.53,
340.13,220.24,
340.56,221.10,
340.99,221.82,
341.42,222.24,
341.85,222.88,
342.28,222.75,
342.71,222.95,
343.14,223.80,
343.57,223.91,
344.00,224.08,
344.43,224.55,
344.86,224.74,
345.29,225.74,
345.72,226.64,
346.15,228.31,
346.58,229.85,
347.01,231.57,
347.44,234.31,
347.87,236.38,
348.30,238.21,
348.73,241.10,
349.16,243.47,
349.59,245.60,
350.02,246.23,
350.44,248.88,
350.87,251.71,
351.30,254.06,
351.73,256.47,
352.16,259.03,
352.59,260.70,
353.02,261.66,
353.45,261.82,
353.88,261.38,
354.31,260.22,
354.73,258.92,
355.16,257.38,
355.59,256.08,
356.02,255.57,
356.45,255.80,
356.88,255.65,
357.31,255.15,
357.74,255.01,
358.16,255.12,
358.59,255.17,
359.02,256.63,
359.45,258.44,
359.88,261.34,
360.31,264.67,
360.73,268.99,
361.16,274.02,
361.59,279.35,
362.02,285.01,
362.45,290.07,
362.88,294.83,
363.30,299.61,
363.73,304.84,
364.16,309.49,
364.59,314.04,
365.02,318.75,
365.44,322.99,
365.87,326.92,
366.30,330.08,
366.73,333.54,
367.16,336.60,
367.58,338.82,
368.01,340.54,
368.44,341.07,
368.87,341.33,
369.29,340.10,
369.72,338.34,
370.15,335.76,
370.58,333.52,
371.00,331.99,
371.43,330.30,
371.86,328.81,
372.29,328.19,
372.71,328.20,
373.14,328.23,
373.57,329.68,
374.00,331.47,
374.42,333.85,
374.85,336.53,
375.28,339.44,
375.70,342.54,
376.13,345.73,
376.56,349.07,
376.99,351.43,
377.41,352.80,
377.84,353.99,
378.27,353.66,
378.69,351.80,
379.12,349.05,
379.55,345.53,
379.97,340.44,
380.40,335.04,
380.83,329.42,
381.25,324.59,
381.68,320.57,
382.11,317.40,
382.53,315.52,
382.96,314.10,
383.39,313.85,
383.81,314.18,
384.24,314.64,
384.67,316.37,
385.09,319.48,
385.52,324.04,
385.95,328.77,
386.37,334.45,
386.80,340.92,
387.22,347.33,
387.65,353.48,
388.08,358.74,
388.50,363.08,
388.93,366.10,
389.36,367.85,
389.78,368.42,
390.21,367.95,
390.63,367.18,
391.06,366.68,
391.49,366.04,
391.91,365.47,
392.34,365.71,
392.76,365.87,
393.19,365.56,
393.61,365.16,
394.04,365.47,
394.47,367.12,
394.89,370.85,
395.32,377.17,
395.74,387.05,
396.17,399.37,
396.59,414.71,
397.02,431.23,
397.45,448.02,
397.87,464.91,
398.30,480.94,
398.72,496.26,
399.15,511.21,
399.57,526.22,
400.00,541.78,
400.42,556.02,
400.85,568.69,
401.27,580.31,
401.70,589.20,
402.12,594.97,
402.55,599.67,
402.97,601.88,
403.40,603.51,
403.82,604.56,
404.25,605.16,
404.67,605.54,
405.10,605.90,
405.52,606.81,
405.95,607.65,
406.37,608.25,
406.80,609.68,
407.22,611.98,
407.65,613.11,
408.07,615.06,
408.50,618.20,
408.92,621.68,
409.35,625.82,
409.77,630.13,
410.20,634.56,
410.62,638.70,
411.04,643.16,
411.47,646.81,
411.89,649.83,
412.32,653.36,
412.74,656.94,
413.17,659.47,
413.59,661.43,
414.02,664.17,
414.44,666.98,
414.86,669.30,
415.29,670.51,
415.71,671.67,
416.14,672.21,
416.56,672.00,
416.99,671.93,
417.41,671.56,
417.83,672.61,
418.26,673.34,
418.68,673.63,
419.11,673.41,
419.53,673.52,
419.95,674.30,
420.38,674.92,
420.80,674.29,
421.23,674.23,
421.65,674.33,
422.07,673.82,
422.50,673.78,
422.92,673.29,
423.34,672.95,
423.77,672.32,
424.19,670.70,
424.62,668.09,
425.04,664.75,
425.46,661.55,
425.89,657.96,
426.31,652.80,
426.73,648.15,
427.16,644.00,
427.58,638.20,
428.00,633.05,
428.43,628.96,
428.85,626.52,
429.27,625.77,
429.70,626.38,
430.12,628.44,
430.54,630.82,
430.97,634.83,
431.39,639.22,
431.81,643.89,
432.24,650.28,
432.66,658.28,
433.08,666.62,
433.51,675.57,
433.93,685.54,
434.35,694.71,
434.77,702.85,
435.20,708.78,
435.62,713.90,
436.04,717.94,
436.47,720.29,
436.89,723.39,
437.31,725.55,
437.73,729.28,
438.16,734.27,
438.58,739.08,
439.00,743.94,
439.43,748.37,
439.85,753.21,
440.27,757.52,
440.69,761.82,
441.12,767.99,
441.54,774.17,
441.96,779.09,
442.38,784.62,
442.81,789.93,
443.23,794.98,
443.65,800.24,
444.07,805.28,
444.50,809.49,
444.92,813.32,
445.34,817.73,
445.76,822.18,
446.19,825.40,
446.61,830.34,
447.03,835.73,
447.45,840.65,
447.87,845.29,
448.30,851.38,
448.72,856.06,
449.14,860.77,
449.56,864.68,
449.99,868.41,
450.41,871.24,
450.83,872.90,
451.25,875.16,
451.67,875.18,
452.10,876.30,
452.52,878.53,
452.94,879.80,
453.36,881.16,
453.78,881.57,
454.20,882.74,
454.63,883.13,
455.05,883.40,
455.47,885.17,
455.89,887.51,
456.31,888.41,
456.74,890.07,
457.16,892.73,
457.58,894.52,
458.00,897.58,
458.42,900.47,
458.84,902.90,
459.27,904.85,
459.69,906.97,
460.11,909.33,
460.53,909.25,
460.95,910.61,
461.37,912.35,
461.79,912.48,
462.22,912.03,
462.64,914.56,
463.06,915.49,
463.48,916.92,
463.90,917.69,
464.32,918.09,
464.74,917.64,
465.16,917.05,
465.59,916.50,
466.01,913.76,
466.43,912.39,
466.85,913.79,
467.27,913.44,
467.69,912.77,
468.11,913.38,
468.53,914.96,
468.95,915.74,
469.38,915.10,
469.80,917.22,
470.22,918.98,
470.64,919.25,
471.06,920.61,
471.48,921.41,
471.90,921.97,
472.32,925.59,
472.74,927.41,
473.16,928.36,
473.58,930.23,
474.01,933.43,
474.43,935.94,
474.85,935.08,
475.27,936.95,
475.69,940.22,
476.11,940.17,
476.53,941.27,
476.95,945.90,
477.37,946.71,
477.79,951.00,
478.21,953.73,
478.63,954.92,
479.05,956.08,
479.47,958.58,
479.89,958.80,
480.31,957.17,
480.74,956.43,
481.16,957.82,
481.58,954.13,
482.00,949.95,
482.42,946.63,
482.84,942.55,
483.26,936.11,
483.68,929.26,
484.10,921.76,
484.52,915.65,
484.94,910.91,
485.36,906.83,
485.78,901.34,
486.20,899.13,
486.62,900.70,
487.04,899.93,
487.46,900.82,
487.88,902.51,
488.30,906.38,
488.72,908.56,
489.14,910.80,
489.56,915.18,
489.98,920.89,
490.40,924.58,
490.82,929.30,
491.24,933.20,
491.66,936.02,
492.08,941.79,
492.50,943.88,
492.92,944.45,
493.34,945.81,
493.76,947.29,
494.18,948.31,
494.60,947.84,
495.02,948.21,
495.44,951.67,
495.86,950.75,
496.28,950.41,
496.70,951.33,
497.12,949.89,
497.54,947.49,
497.95,944.73,
498.37,940.48,
498.79,937.30,
499.21,934.12,
499.63,931.09,
500.05,926.54,
500.47,924.64,
500.89,923.81,
501.31,921.37,
501.73,918.61,
502.15,918.30,
502.57,918.22,
502.99,918.77,
503.41,919.38,
503.83,920.97,
504.25,923.38,
504.67,924.32,
505.08,926.56,
505.50,927.67,
505.92,928.77,
506.34,931.18,
506.76,932.05,
507.18,933.98,
507.60,936.59,
508.02,938.86,
508.44,940.92,
508.86,941.04,
509.28,940.52,
509.70,942.48,
510.11,940.53,
510.53,940.44,
510.95,940.49,
511.37,939.52,
511.79,939.07,
512.21,938.91,
512.63,936.31,
513.05,933.42,
513.47,928.86,
513.88,923.43,
514.30,916.60,
514.72,910.49,
515.14,906.08,
515.56,900.85,
515.98,896.07,
516.40,894.64,
516.82,892.50,
517.23,890.98,
517.65,891.13,
518.07,892.20,
518.49,893.56,
518.91,894.58,
519.33,897.83,
519.75,900.29,
520.17,903.84,
520.58,908.88,
521.00,913.77,
521.42,917.94,
521.84,924.90,
522.26,928.73,
522.68,931.60,
523.09,932.45,
523.51,934.00,
523.93,933.64,
524.35,931.60,
524.77,930.84,
525.19,931.25,
525.60,931.20,
526.02,933.38,
526.44,936.46,
526.86,938.90,
527.28,942.18,
527.70,943.60,
528.11,944.33,
528.53,943.50,
528.95,945.37,
529.37,947.88,
529.79,948.70,
530.21,950.07,
530.62,953.55,
531.04,955.21,
531.46,956.26,
531.88,957.61,
532.30,958.71,
532.71,959.26,
533.13,958.21,
533.55,957.30,
533.97,955.92,
534.39,954.43,
534.80,955.14,
535.22,953.77,
535.64,952.30,
536.06,953.85,
536.48,952.68,
536.89,952.08,
537.31,949.90,
537.73,949.37,
538.15,947.37,
538.56,944.51,
538.98,942.25,
539.40,940.80,
539.82,938.69,
540.24,938.92,
540.65,940.38,
541.07,939.51,
541.49,941.04,
541.91,941.45,
542.32,940.31,
542.74,940.23,
543.16,940.31,
543.58,941.87,
543.99,942.67,
544.41,943.06,
544.83,945.89,
545.25,946.02,
545.66,946.59,
546.08,947.51,
546.50,949.51,
546.92,949.41,
547.33,950.58,
547.75,950.83,
548.17,950.64,
548.59,950.10,
549.00,952.45,
549.42,953.67,
549.84,953.55,
550.26,955.36,
550.67,955.95,
551.09,955.10,
551.51,955.23,
551.93,957.13,
552.34,957.52,
552.76,954.90,
553.18,954.84,
553.59,953.73,
554.01,949.69,
554.43,949.47,
554.85,948.21,
555.26,946.41,
555.68,943.40,
556.10,942.21,
556.51,939.10,
556.93,936.04,
557.35,933.60,
557.77,932.89,
558.18,929.55,
558.60,927.46,
559.02,928.02,
559.43,925.95,
559.85,925.57,
560.27,926.48,
560.68,927.27,
561.10,927.79,
561.52,927.54,
561.93,928.62,
562.35,928.98,
562.77,926.77,
563.19,928.14,
563.60,927.85,
564.02,926.14,
564.44,926.07,
564.85,924.88,
565.27,922.82,
565.69,919.84,
566.10,918.36,
566.52,917.29,
566.94,915.22,
567.35,913.56,
567.77,912.66,
568.19,907.93,
568.60,906.55,
569.02,907.31,
569.44,905.80,
569.85,904.50,
570.27,904.83,
570.69,904.26,
571.10,903.97,
571.52,902.61,
571.93,904.85,
572.35,904.66,
572.77,904.06,
573.18,903.83,
573.60,902.23,
574.02,901.92,
574.43,904.08,
574.85,904.96,
575.27,904.78,
575.68,904.98,
576.10,905.61,
576.52,905.21,
576.93,903.20,
577.35,904.50,
577.76,906.65,
578.18,908.84,
578.60,910.10,
579.01,912.32,
579.43,915.13,
579.85,919.19,
580.26,921.19,
580.68,924.34,
581.09,925.20,
581.51,926.19,
581.93,926.56,
582.34,925.48,
582.76,925.29,
583.17,926.30,
583.59,924.90,
584.01,921.26,
584.42,917.26,
584.84,912.83,
585.25,907.73,
585.67,899.20,
586.09,891.67,
586.50,883.27,
586.92,875.52,
587.33,868.94,
587.75,863.77,
588.17,858.70,
588.58,857.17,
589.00,853.71,
589.41,850.70,
589.83,847.44,
590.25,846.62,
590.66,844.61,
591.08,843.18,
591.49,843.42,
591.91,844.87,
592.32,846.84,
592.74,850.30,
593.16,852.62,
593.57,855.92,
593.99,860.22,
594.40,861.95,
594.82,863.94,
595.23,865.51,
595.65,867.48,
596.07,869.71,
596.48,870.97,
596.90,873.72,
597.31,878.40,
597.73,880.71,
598.14,884.09,
598.56,887.39,
598.97,889.25,
599.39,891.30,
599.81,891.82,
600.22,892.63,
600.64,894.34,
601.05,895.95,
601.47,897.30,
601.88,898.89,
602.30,900.82,
602.71,904.18,
603.13,904.22,
603.54,904.26,
603.96,904.94,
604.37,905.26,
604.79,904.60,
605.21,905.31,
605.62,906.33,
606.04,907.44,
606.45,906.45,
606.87,906.06,
607.28,903.87,
607.70,902.45,
608.11,900.85,
608.53,898.38,
608.94,896.12,
609.36,895.34,
609.77,894.08,
610.19,892.08,
610.60,890.73,
611.02,889.46,
611.43,889.05,
611.85,886.45,
612.26,884.46,
612.68,883.16,
613.09,882.27,
613.51,881.29,
613.92,880.97,
614.34,880.55,
614.75,881.89,
615.17,880.94,
615.58,882.13,
616.00,881.54,
616.41,882.32,
616.83,883.35,
617.24,883.11,
617.66,882.65,
618.07,883.60,
618.49,884.29,
618.90,884.29,
619.32,884.45,
619.73,885.03,
620.15,884.92,
620.56,882.69,
620.98,881.24,
621.39,879.11,
621.80,876.95,
622.22,875.61,
622.63,873.46,
623.05,870.84,
623.46,869.73,
623.88,867.07,
624.29,863.93,
624.71,860.01,
625.12,857.11,
625.54,853.76,
625.95,849.65,
626.37,846.83,
626.78,847.04,
627.19,845.09,
627.61,843.05,
628.02,842.79,
628.44,841.73,
628.85,841.47,
629.27,840.01,
629.68,839.46,
630.10,839.69,
630.51,841.97,
630.92,843.12,
631.34,845.46,
631.75,848.11,
632.17,852.73,
632.58,854.75,
633.00,855.75,
633.41,857.74,
633.82,860.57,
634.24,862.90,
634.65,863.56,
635.07,865.04,
635.48,867.81,
635.90,868.86,
636.31,870.24,
636.72,870.49,
637.14,871.72,
637.55,873.56,
637.97,873.03,
638.38,871.62,
638.80,872.04,
639.21,871.65,
639.62,870.84,
640.04,869.25,
640.45,867.28,
640.87,867.72,
641.28,866.51,
641.69,864.12,
642.11,863.35,
642.52,861.34,
642.94,858.58,
643.35,853.32,
643.76,848.72,
644.18,843.97,
644.59,840.61,
645.01,836.15,
645.42,832.62,
645.83,829.33,
646.25,827.68,
646.66,825.66,
647.07,823.67,
647.49,821.62,
647.90,820.55,
648.32,818.47,
648.73,817.93,
649.14,818.18,
649.56,820.13,
649.97,820.66,
650.38,821.90,
650.80,822.20,
651.21,822.27,
651.63,821.93,
652.04,819.36,
652.45,816.82,
652.87,813.96,
653.28,810.02,
653.69,806.72,
654.11,804.86,
654.52,803.37,
654.93,803.91,
655.35,804.48,
655.76,805.35,
656.17,807.10,
656.59,809.28,
657.00,811.24,
657.42,813.75,
657.83,817.28,
658.24,824.63,
658.66,830.75,
659.07,836.04,
659.48,843.30,
659.90,849.76,
660.31,855.45,
660.72,858.96,
661.14,861.32,
661.55,863.00,
661.96,863.19,
662.38,864.23,
662.79,864.52,
663.20,865.29,
663.62,867.44,
664.03,868.38,
664.44,867.21,
664.85,866.49,
665.27,867.21,
665.68,867.18,
666.09,865.38,
666.51,864.74,
666.92,865.68,
667.33,865.25,
667.75,864.41,
668.16,865.66,
668.57,865.26,
668.99,865.02,
669.40,864.41,
669.81,863.88,
670.23,863.03,
670.64,862.15,
671.05,862.03,
671.46,860.86,
671.88,860.25,
672.29,861.37,
672.70,861.94,
673.12,861.26,
673.53,861.15,
673.94,861.44,
674.35,860.56,
674.77,858.61,
675.18,858.43,
675.59,859.92,
676.01,859.50,
676.42,859.09,
676.83,859.09,
677.24,858.18,
677.66,858.40,
678.07,858.44,
678.48,857.30,
678.89,855.98,
679.31,855.05,
679.72,854.32,
680.13,853.15,
680.55,851.91,
680.96,852.48,
681.37,849.74,
681.78,844.55,
682.20,839.11,
682.61,833.34,
683.02,827.20,
683.43,819.60,
683.85,811.19,
684.26,801.05,
684.67,790.35,
685.08,779.80,
685.50,770.92,
685.91,762.39,
686.32,755.28,
686.73,747.73,
687.15,739.72,
687.56,734.38,
687.97,730.71,
688.38,728.57,
688.79,725.46,
689.21,723.74,
689.62,726.07,
690.03,727.14,
690.44,728.45,
690.86,729.71,
691.27,731.82,
691.68,732.67,
692.09,730.74,
692.50,731.30,
692.92,732.83,
693.33,734.10,
693.74,734.68,
694.15,735.96,
694.57,737.10,
694.98,740.51,
695.39,742.27,
695.80,741.96,
696.21,741.46,
696.63,741.95,
697.04,744.23,
697.45,744.37,
697.86,744.15,
698.27,748.70,
698.69,747.70,
699.10,745.95,
699.51,744.31,
699.92,744.39,
700.33,743.90,
700.75,742.51,
701.16,742.13,
701.57,743.29,
701.98,742.90,
702.39,744.08,
702.80,747.51,
703.22,750.51,
703.63,756.11,
704.04,761.17,
704.45,763.25,
704.86,765.60,
705.27,769.13,
705.69,772.66,
706.10,772.78,
706.51,773.39,
706.92,778.62,
707.33,779.09,
707.74,779.60,
708.16,781.14,
708.57,783.48,
708.98,784.33,
709.39,782.53,
709.80,781.06,
710.21,779.21,
710.63,775.46,
711.04,773.05,
711.45,770.00,
711.86,764.66,
712.27,761.86,
712.68,754.53,
713.09,741.99,
713.51,729.38,
713.92,715.03,
714.33,700.09,
714.74,681.51,
715.15,664.10,
715.56,650.38,
715.97,633.28,
716.38,616.40,
716.80,602.97,
717.21,591.50,
717.62,580.79,
718.03,573.43,
718.44,567.14,
718.85,562.57,
719.26,560.53,
719.67,561.47,
720.08,562.83,
720.50,565.06,
720.91,572.35,
721.32,576.76,
721.73,576.54,
722.14,578.81,
722.55,582.47,
722.96,584.61,
723.37,582.23,
723.78,582.33,
724.19,582.01,
724.61,578.63,
725.02,574.62,
725.43,572.75,
725.84,571.16,
726.25,570.89,
726.66,570.81,
727.07,570.49,
727.48,570.21,
727.89,572.98,
728.30,577.39,
728.71,581.40,
729.12,588.06,
729.54,599.57,
729.95,606.67,
730.36,613.05,
730.77,621.27,
731.18,631.97,
731.59,641.46,
732.00,648.09,
732.41,658.04,
732.82,669.51,
733.23,677.02,
733.64,683.85,
734.05,690.84,
734.46,697.27,
734.87,704.12,
735.28,707.76,
735.69,709.54,
736.10,713.21,
736.51,714.01,
736.93,717.29,
737.34,717.94,
737.75,722.11,
738.16,728.25,
738.57,731.36,
738.98,732.27,
739.39,734.39,
739.80,740.02,
740.21,745.37,
740.62,748.19,
741.03,752.31,
741.44,756.96,
741.85,759.40,
742.26,761.83,
742.67,764.85,
743.08,769.48,
743.49,772.98,
743.90,773.61,
744.31,773.34,
744.72,773.56,
745.13,773.16,
745.54,774.53,
745.95,773.02,
746.36,771.73,
746.77,774.58,
747.18,774.19,
747.59,771.13,
748.00,769.46,
748.41,769.41,
748.82,770.20,
749.23,764.54,
749.64,764.28,
750.05,766.16,
750.46,762.46,
750.87,760.48,
751.28,760.49,
751.69,760.80,
752.10,760.48,
752.51,760.96,
752.92,757.17,
753.33,753.73,
753.74,749.56,
754.15,746.84,
754.56,737.34,
754.96,727.80,
755.37,719.10,
755.78,700.73,
756.19,675.94,
756.60,651.96,
757.01,623.89,
757.42,592.13,
757.83,557.64,
758.24,523.94,
758.65,493.12,
759.06,459.88,
759.47,431.43,
759.88,404.34,
760.29,380.99,
760.70,360.37,
761.11,345.24,
761.52,334.14,
761.92,329.87,
762.33,333.41,
762.74,344.13,
763.15,357.59,
763.56,378.46,
763.97,405.43,
764.38,431.78,
764.79,454.65,
765.20,482.61,
765.61,508.67,
766.02,536.20,
766.43,562.01,
766.83,588.22,
767.24,614.09,
767.65,631.87,
768.06,650.85,
768.47,664.92,
768.88,678.93,
769.29,693.49,
769.70,704.97,
770.11,711.41,
770.52,716.22,
770.92,721.48,
771.33,726.89,
771.74,727.61,
772.15,730.77,
772.56,735.01,
772.97,735.11,
773.38,733.40,
773.79,734.40,
774.19,736.94,
774.60,740.81,
775.01,742.26,
775.42,743.96,
775.83,743.59,
776.24,741.67,
776.65,742.41,
777.05,741.53,
777.46,740.28,
777.87,742.95,
778.28,743.76,
778.69,740.33,
779.10,737.95,
779.50,737.93,
779.91,738.60,
780.32,734.95,
780.73,735.03,
781.14,737.05,
781.55,733.57,
781.95,730.32,
782.36,727.38,
782.77,725.91,
783.18,725.49,
783.59,723.82,
784.00,719.17,
784.40,715.81,
784.81,710.99,
785.22,708.64,
785.63,701.03,
786.04,697.97,
786.44,697.48,
786.85,693.38,
787.26,687.01,
787.67,682.54,
788.08,678.61,
788.48,678.65,
788.89,672.50,
789.30,673.25,
789.71,674.76,
790.12,671.89,
790.52,669.06,
790.93,667.23,
791.34,667.72,
791.75,669.74,
792.15,668.35,
792.56,665.81,
792.97,667.72,
793.38,665.79,
793.78,664.52,
794.19,663.18,
794.60,664.81,
795.01,671.39,
795.42,668.66,
795.82,666.32,
796.23,666.49,
796.64,666.68,
797.05,668.14,
797.45,666.15,
797.86,667.04,
798.27,670.81,
798.67,668.86,
799.08,665.28,
799.49,663.73,
799.90,666.01,
800.30,669.43,
800.71,668.98,
801.12,666.33,
801.53,666.84,
801.93,665.26,
802.34,664.93,
802.75,661.98,
803.15,664.60,
803.56,669.14,
803.97,670.11,
804.38,667.69,
804.78,669.25,
805.19,670.04,
805.60,671.18,
806.00,670.45,
806.41,668.05,
806.82,667.86,
807.22,662.04,
807.63,656.98,
808.04,649.97,
808.44,645.56,
808.85,641.33,
809.26,633.29,
809.67,622.54,
810.07,611.39,
810.48,599.66,
810.89,587.48,
811.29,572.96,
811.70,560.02,
812.11,547.65,
812.51,534.96,
812.92,520.08,
813.32,507.77,
813.73,496.43,
814.14,487.82,
814.54,477.96,
814.95,471.43,
815.36,468.02,
815.76,461.80,
816.17,458.32,
816.58,455.82,
816.98,456.43,
817.39,461.52,
817.79,464.94,
818.20,465.05,
818.61,464.92,
819.01,466.87,
819.42,468.94,
819.83,468.33,
820.23,471.47,
820.64,476.90,
821.04,478.09,
821.45,477.93,
821.86,480.63,
822.26,484.56,
822.67,488.59,
823.07,491.23,
823.48,491.98,
823.89,495.29,
824.29,496.41,
824.70,498.66,
825.10,498.61,
825.51,502.61,
825.91,507.06,
826.32,510.29,
826.73,511.40,
827.13,513.03,
827.54,513.85,
827.94,514.73,
828.35,513.13,
828.75,515.57,
829.16,517.45,
829.57,518.09,
829.97,517.05,
830.38,519.40,
830.78,522.72,
831.19,528.38,
831.59,532.10,
832.00,536.42,
832.40,542.37,
832.81,544.83,
833.21,548.11,
833.62,551.02,
834.02,556.21,
834.43,562.20,
834.83,566.08,
835.24,569.52,
835.64,572.92,
836.05,576.99,
836.45,582.61,
836.86,585.77,
837.26,590.65,
837.67,595.62,
838.07,599.06,
838.48,599.44,
838.88,602.41,
839.29,607.19,
839.69,612.38,
840.10,614.68,
840.50,616.76,
840.91,617.61,
841.31,617.04,
841.72,618.86,
842.12,618.37,
842.53,619.75,
